#*** Red Peakup Filter Transmission Curve
#*** 
#*** These data were used to create the IRS Peak-Up
#*** filter transmission curves shown in Figure 7.39
#*** of the Spitzer Observer's Manual (v5.0).
#*** Note that this data represents ONLY the filter
#*** transmission and does NOT include the detector
#*** responsivity, which varies slightly with wavelength.
#***
# Wave (mum) % Trans			
17.00174396  0
17.04763768  0			
17.0935314   0.1921			
17.13942512  0.9817			
17.18531884  0.2908			
17.23121256  0
17.27710628  0			
17.323       0.5869			
17.36889372  0			
17.41478744  0.0934			
17.46068116  1.2779			
17.50657488  0.9817			
17.5524686   0.0934			
17.59836232  0
17.64425604  0.2908
17.69014976  1.2779
17.73604348  0.2908
17.7819372   0
17.82783092  0.6856
17.87372464  0.9817
17.91961836  0.9817
17.96551208  0.9817
18.0114058   3.0546
18.05729952  4.1403
18.10319324  5.621
18.14908696  6.0158
18.19498068  8.6809
18.2408744  13.8136
18.28676812 17.7618
18.33266184 23.5855
18.37855556 31.2945
18.42444928 43.8991
18.470343   54.4607
18.51623671 61.765
18.56213043 70.52
18.60802415 79.0088
18.65391787 82.2661
18.69981159 84.4377
18.74570531 85.326
18.79159903 85.9183
18.83749275 86.2144
18.88338647 85.9183
18.92928019 85.9183
18.97517391 85.6221
19.02106763 86.1157
19.06696135 86.3131
19.11285507 86.2144
19.15874879 87.0041
19.20464251 86.3131
19.25053623 86.6092
19.29642995 87.3002
19.34232367 87.1028
19.38821739 87.3989
19.43411111 88.3859
19.48000483 88.1885
19.52589855 88.6821
19.57179227 89.0769
19.61768599 88.9782
19.66357971 89.5705
19.70947343 89.9653
19.75536715 89.6692
19.80126087 90.4588
19.84715459 90.4588
19.89304831 90.5575
19.93894203 90.3601
19.98483575 90.4588
20.03072947 89.9653
20.07662319 89.7679
20.12251691 89.8666
20.16841063 89.8666
20.21430435 89.373
20.26019807 88.4847
20.30609179 88.2873
20.35198551 88.9782
20.39787923 88.6821
20.44377295 89.2743
20.48966667 88.4847
20.53556039 89.373
20.58145411 88.2873
20.62734783 87.7937
20.67324155 88.1886
20.71913527 88.6821
20.76502899 89.1756
20.81092271 89.2743
20.85681643 89.1756
20.90271014 89.7679
20.94860386 90.1627
20.99449758 89.2743
21.0403913  89.1756
21.08628502 89.373
21.13217874 89.2743
21.17807246 89.2743
21.22396618 89.2743
21.2698599  89.373
21.31575362 89.0769
21.36164734 88.7808
21.40754106 88.6821
21.45343478 89.8666
21.4993285  89.9653
21.54522222 88.7808
21.59111594 88.5834
21.63700966 87.7937
21.68290338 87.7937
21.7287971  88.386
21.77469082 88.1886
21.82058454 87.2015
21.86647826 87.1028
21.91237198 86.6093
21.9582657  86.1157
22.00415942 86.3131
22.05005314 86.1157
22.09594686 85.3261
22.14184058 83.5493
22.1877343  83.3519
22.23362802 83.0558
22.27952174 82.2662
22.32541546 81.97
22.37130918 81.1804
22.4172029  80.8842
22.46309662 80.3907
22.50899034 79.2063
22.55488406 78.8114
22.60077778 78.3179
22.6466715  79.2063
22.69256522 78.614
22.73845894 78.7127
22.78435266 79.0088
22.83024638 79.3049
22.8761401  79.3049
22.92203382 79.2063
22.96792754 79.3049
23.01382126 79.7985
23.05971498 79.2063
23.1056087  77.9231
23.15150242 77.2321
23.19739614 76.6399
23.24328986 76.0476
23.28918357 75.1593
23.33507729 73.9748
23.38097101 72.9877
23.42686473 72.0994
23.47275845 71.1123
23.51865217 70.7175
23.56454589 71.4084
23.61043961 72.1981
23.65633333 73.6787
23.70222705 74.7644
23.74812077 75.0606
23.79401449 75.3567
23.83990821 76.3438
23.88580193 78.614
23.93169565 79.6998
23.97758937 80.6869
24.02348309 82.8584
24.06937681 84.6351
24.11527053 84.6351
24.16116425 84.339
24.20705797 84.4377
24.25295169 86.9054
24.29884541 87.7937
24.34473913 87.7937
24.39063285 88.0899
24.43652657 88.6821
24.48242029 88.1886
24.52831401 88.0899
24.57420773 88.6821
24.62010145 89.4717
24.66599517 89.1756
24.71188889 89.2743
24.75778261 89.373
24.80367633 88.7808
24.84957005 87.9911
24.89546377 87.695
24.94135749 87.9911
24.98725121 88.6821
25.03314493 88.9782
25.07903865 88.7808
25.12493237 88.4847
25.17082609 88.7808
25.21671981 87.4976
25.26261353 86.3131
25.30850725 86.017
25.35440097 86.7079
25.40029469 86.7079
25.44618841 86.6093
25.49208213 86.6093
25.53797585 86.3131
25.58386957 85.2274
25.62976329 83.4506
25.675657   82.5623
25.72155072 82.1675
25.76744444 81.97
25.81333816 81.3778
25.85923188 81.2791
25.9051256  80.983
25.95101932 80.1933
25.99691304 79.2063
26.04280676 76.8373
26.08870048 75.0606
26.1345942  74.9619
26.18048792 75.1593
26.22638164 75.258
26.27227536 74.4683
26.31816908 73.58
26.3640628  72.3955
26.40995652 71.5071
26.45585024 70.6188
